File: 研究/Sn/Sn_X線/190306/Ge_20190122_mid.TXT
Sample Ge-cutïi
Comments medium
Filename C:\WINDMAX\DATA\SHIMANO\XRD20190306\Ge_20190122_mid.raw
Goniometer TTRáV êÖïΩ∫ﬁ∆µ“∞¿(Tsé≤éËìÆ,ADS)
Attachment ïWèÄééóøŒŸ¿ﬁ∞
Monochromater å≈íË”…∏€“∞¿
ScanningMode 2Theta/Theta
ScanningType Continuos Scanning
X-Ray 40kV/300mA
î≠éUΩÿØƒ 2/3Åã
î≠éUècêßå¿ΩÿØƒ 10mm
éUóêΩÿØƒ 2/3Åã
éÛåıΩÿØƒ 0.3mm
±Ø√»∞¿ äJï˙
”…∏€éÛåıΩÿØƒ 0.8mm
Start 10
Stop 90
Step 0.02
10 150
10.28 134
10.56 150
10.84 132
11.12 155
11.4 147
11.68 139
11.96 131
12.24 136
12.52 123
12.8 112
13.08 147
13.36 120
13.64 137
13.92 125
14.2 156
14.48 165
14.76 165
15.04 154
15.32 161
15.6 159
15.88 162
16.16 161
16.44 169
16.72 148
17 164
17.28 171
17.56 163
17.84 166
18.12 188
18.4 168
18.68 191
18.96 198
19.24 210
19.52 197
19.8 201
20.08 172
20.36 190
20.64 214
20.92 254
21.2 221
21.48 250
21.76 257
22.04 269
22.32 327
22.6 308
22.88 266
23.16 273
23.44 267
23.72 231
24 245
24.28 229
24.56 242
24.84 220
25.12 224
25.4 198
25.68 196
25.96 230
26.24 249
26.52 230
26.8 244
27.08 228
27.36 258
27.64 210
27.92 197
28.2 215
28.48 227
28.76 201
29.04 216
29.32 213
29.6 193
29.88 196
30.16 222
30.44 200
30.72 205
31 209
31.28 175
31.56 161
31.84 189
32.12 171
32.4 178
32.68 177
32.96 180
33.24 187
33.52 161
33.8 156
34.08 155
34.36 178
34.64 162
34.92 160
35.2 141
35.48 129
35.76 188
36.04 159
36.32 156
36.6 116
36.88 107
37.16 121
37.44 126
37.72 126
38 127
38.28 112
38.56 126
38.84 97
39.12 114
39.4 102
39.68 118
39.96 125
40.24 112
40.52 105
40.8 118
41.08 109
41.36 117
41.64 143
41.92 118
42.2 103
42.48 93
42.76 103
43.04 121
43.32 115
43.6 88
43.88 114
44.16 105
44.44 107
44.72 115
45 131
45.28 121
45.56 125
45.84 104
46.12 115
46.4 95
46.68 89
46.96 98
47.24 99
47.52 95
47.8 99
48.08 100
48.36 111
48.64 99
48.92 83
49.2 71
49.48 82
49.76 94
50.04 96
50.32 91
50.6 94
50.88 94
51.16 109
51.44 75
51.72 82
52 83
52.28 75
52.56 83
52.84 93
53.12 93
53.4 109
53.68 94
53.96 97
54.24 86
54.52 87
54.8 76
55.08 96
55.36 94
55.64 70
55.92 89
56.2 91
56.48 90
56.76 75
57.04 84
57.32 97
57.6 96
57.88 83
58.16 88
58.44 76
58.72 78
59 103
59.28 87
59.56 92
59.84 106
60.12 87
60.4 95
60.68 84
60.96 92
61.24 75
61.52 94
61.8 87
62.08 95
62.36 86
62.64 76
62.92 85
63.2 85
63.48 74
63.76 74
64.04 63
64.32 81
64.6 73
64.88 81
65.16 97
65.44 86
65.72 84
66 76
66.28 79
66.56 75
66.84 75
67.12 68
67.4 85
67.68 81
67.96 96
68.24 90
68.52 73
68.8 76
69.08 62
69.36 68
69.64 83
69.92 63
70.2 66
70.48 61
70.76 66
71.04 93
71.32 71
71.6 75
71.88 72
72.16 78
72.44 77
72.72 65
73 71
73.28 63
73.56 62
73.84 73
74.12 58
74.4 57
74.68 71
74.96 75
75.24 54
75.52 64
75.8 67
76.08 75
76.36 66
76.64 63
76.92 73
77.2 73
77.48 64
77.76 61
78.04 58
78.32 56
78.6 62
78.88 62
79.16 57
79.44 66
79.72 40
80 49
80.28 43
80.56 59
80.84 53
81.12 59
81.4 57
81.68 63
81.96 53
82.24 48
82.52 51
82.8 54
83.08 56
83.36 52
83.64 53
83.92 58
84.2 52
84.48 56
84.76 52
85.04 56
85.32 49
85.6 46
85.88 47
86.16 46
86.44 59
86.72 46
87 60
87.28 53
87.56 47
87.84 56
88.12 58
88.4 42
88.68 62
88.96 60
89.24 57
89.52 74
89.8 142
90 214