File: 研究/Sn/Sn_X線/190306/glass_reference.TXT
Sample glass_reference
Comments rapid
Filename C:\WINDMAX\DATA\SHIMANO\XRD20190306\glass_reference.raw
Goniometer TTRáV êÖïΩ∫ﬁ∆µ“∞¿(Tsé≤éËìÆ,ADS)
Attachment ïWèÄééóøŒŸ¿ﬁ∞
Monochromater å≈íË”…∏€“∞¿
ScanningMode 2Theta/Theta
ScanningType Continuos Scanning
X-Ray 40kV/300mA
î≠éUΩÿØƒ 2/3Åã
î≠éUècêßå¿ΩÿØƒ 2mm
éUóêΩÿØƒ 2/3Åã
éÛåıΩÿØƒ 0.3mm
±Ø√»∞¿ äJï˙
”…∏€éÛåıΩÿØƒ 0.8mm
Start 10
Stop 90
Step 0.02
10 35
10.28 31
10.56 36
10.84 33
11.12 34
11.4 31
11.68 32
11.96 33
12.24 31
12.52 38
12.8 39
13.08 32
13.36 45
13.64 35
13.92 39
14.2 45
14.48 35
14.76 38
15.04 30
15.32 39
15.6 43
15.88 34
16.16 40
16.44 33
16.72 59
17 53
17.28 57
17.56 57
17.84 53
18.12 50
18.4 76
18.68 61
18.96 66
19.24 47
19.52 64
19.8 82
20.08 59
20.36 75
20.64 90
20.92 70
21.2 81
21.48 84
21.76 72
22.04 84
22.32 80
22.6 97
22.88 83
23.16 107
23.44 101
23.72 88
24 108
24.28 90
24.56 106
24.84 98
25.12 90
25.4 96
25.68 98
25.96 94
26.24 89
26.52 95
26.8 87
27.08 85
27.36 84
27.64 78
27.92 101
28.2 94
28.48 90
28.76 89
29.04 76
29.32 76
29.6 80
29.88 74
30.16 78
30.44 57
30.72 76
31 77
31.28 99
31.56 85
31.84 67
32.12 60
32.4 72
32.68 59
32.96 57
33.24 64
33.52 57
33.8 60
34.08 64
34.36 63
34.64 64
34.92 54
35.2 44
35.48 49
35.76 62
36.04 37
36.32 57
36.6 38
36.88 51
37.16 39
37.44 41
37.72 35
38 54
38.28 30
38.56 41
38.84 43
39.12 42
39.4 41
39.68 33
39.96 31
40.24 34
40.52 38
40.8 32
41.08 39
41.36 36
41.64 37
41.92 42
42.2 35
42.48 37
42.76 30
43.04 31
43.32 36
43.6 38
43.88 36
44.16 38
44.44 40
44.72 40
45 33
45.28 46
45.56 38
45.84 41
46.12 33
46.4 38
46.68 28
46.96 27
47.24 21
47.52 37
47.8 47
48.08 27
48.36 27
48.64 32
48.92 39
49.2 32
49.48 40
49.76 31
50.04 35
50.32 30
50.6 30
50.88 36
51.16 24
51.44 25
51.72 32
52 34
52.28 44
52.56 37
52.84 27
53.12 36
53.4 43
53.68 26
53.96 33
54.24 22
54.52 32
54.8 32
55.08 30
55.36 31
55.64 38
55.92 36
56.2 29
56.48 28
56.76 29
57.04 42
57.32 31
57.6 42
57.88 28
58.16 33
58.44 30
58.72 35
59 24
59.28 30
59.56 35
59.84 36
60.12 37
60.4 26
60.68 24
60.96 38
61.24 37
61.52 23
61.8 30
62.08 36
62.36 31
62.64 25
62.92 38
63.2 31
63.48 25
63.76 33
64.04 23
64.32 25
64.6 31
64.88 33
65.16 29
65.44 34
65.72 26
66 28
66.28 30
66.56 36
66.84 37
67.12 29
67.4 37
67.68 24
67.96 23
68.24 28
68.52 31
68.8 25
69.08 23
69.36 20
69.64 34
69.92 22
70.2 28
70.48 32
70.76 21
71.04 28
71.32 26
71.6 35
71.88 13
72.16 27
72.44 26
72.72 30
73 32
73.28 20
73.56 21
73.84 21
74.12 26
74.4 15
74.68 32
74.96 23
75.24 33
75.52 27
75.8 20
76.08 32
76.36 28
76.64 26
76.92 19
77.2 29
77.48 29
77.76 28
78.04 17
78.32 23
78.6 22
78.88 21
79.16 18
79.44 15
79.72 23
80 11
80.28 26
80.56 21
80.84 20
81.12 24
81.4 17
81.68 15
81.96 19
82.24 22
82.52 23
82.8 18
83.08 23
83.36 22
83.64 13
83.92 25
84.2 18
84.48 15
84.76 21
85.04 26
85.32 24
85.6 17
85.88 16
86.16 14
86.44 19
86.72 22
87 18
87.28 13
87.56 21
87.84 26
88.12 15
88.4 17
88.68 12
88.96 18
89.24 15
89.52 11
89.8 23
90 14