File: 研究/Sn/Sn_X線/190306/Si-wefer_20190122_mid.TXT
Sample Si-wefer
Comments medium
Filename C:\WINDMAX\DATA\SHIMANO\XRD20190306\Si-wefer_20190122_mid.raw
Goniometer TTRáV êÖïΩ∫ﬁ∆µ“∞¿(Tsé≤éËìÆ,ADS)
Attachment ïWèÄééóøŒŸ¿ﬁ∞
Monochromater å≈íË”…∏€“∞¿
ScanningMode 2Theta/Theta
ScanningType Continuos Scanning
X-Ray 40kV/300mA
î≠éUΩÿØƒ 2/3Åã
î≠éUècêßå¿ΩÿØƒ 10mm
éUóêΩÿØƒ 2/3Åã
éÛåıΩÿØƒ 0.3mm
±Ø√»∞¿ äJï˙
”…∏€éÛåıΩÿØƒ 0.8mm
Start 10
Stop 90
Step 0.02
10 126
10.28 115
10.56 108
10.84 121
11.12 118
11.4 114
11.68 108
11.96 114
12.24 98
12.52 78
12.8 104
13.08 107
13.36 101
13.64 114
13.92 91
14.2 101
14.48 93
14.76 91
15.04 94
15.32 91
15.6 100
15.88 76
16.16 68
16.44 94
16.72 88
17 91
17.28 86
17.56 82
17.84 82
18.12 77
18.4 92
18.68 92
18.96 87
19.24 94
19.52 89
19.8 100
20.08 80
20.36 85
20.64 112
20.92 79
21.2 83
21.48 100
21.76 75
22.04 75
22.32 97
22.6 108
22.88 102
23.16 96
23.44 117
23.72 119
24 90
24.28 105
24.56 77
24.84 109
25.12 105
25.4 104
25.68 125
25.96 98
26.24 88
26.52 99
26.8 127
27.08 102
27.36 125
27.64 100
27.92 103
28.2 98
28.48 112
28.76 119
29.04 105
29.32 93
29.6 93
29.88 103
30.16 95
30.44 114
30.72 94
31 114
31.28 110
31.56 102
31.84 97
32.12 105
32.4 105
32.68 102
32.96 108
33.24 88
33.52 106
33.8 97
34.08 71
34.36 67
34.64 64
34.92 74
35.2 62
35.48 75
35.76 77
36.04 72
36.32 53
36.6 71
36.88 71
37.16 58
37.44 73
37.72 59
38 71
38.28 50
38.56 65
38.84 58
39.12 57
39.4 57
39.68 59
39.96 45
40.24 72
40.52 53
40.8 54
41.08 51
41.36 47
41.64 47
41.92 70
42.2 61
42.48 58
42.76 59
43.04 40
43.32 44
43.6 52
43.88 48
44.16 58
44.44 52
44.72 42
45 52
45.28 40
45.56 45
45.84 40
46.12 46
46.4 38
46.68 59
46.96 40
47.24 47
47.52 45
47.8 44
48.08 33
48.36 33
48.64 39
48.92 40
49.2 30
49.48 35
49.76 38
50.04 43
50.32 29
50.6 37
50.88 35
51.16 37
51.44 30
51.72 35
52 35
52.28 42
52.56 40
52.84 35
53.12 41
53.4 37
53.68 35
53.96 45
54.24 32
54.52 35
54.8 33
55.08 36
55.36 34
55.64 37
55.92 20
56.2 31
56.48 44
56.76 31
57.04 25
57.32 39
57.6 31
57.88 24
58.16 35
58.44 34
58.72 29
59 28
59.28 37
59.56 38
59.84 27
60.12 34
60.4 36
60.68 39
60.96 37
61.24 28
61.52 44
61.8 30
62.08 39
62.36 38
62.64 22
62.92 46
63.2 36
63.48 41
63.76 48
64.04 40
64.32 50
64.6 34
64.88 43
65.16 57
65.44 50
65.72 46
66 71
66.28 81
66.56 97
66.84 100
67.12 115
67.4 128
67.68 163
67.96 159
68.24 206
68.52 202
68.8 320
69.08 4531
69.36 663
69.64 255
69.92 194
70.2 177
70.48 157
70.76 144
71.04 114
71.32 107
71.6 99
71.88 89
72.16 60
72.44 72
72.72 67
73 54
73.28 35
73.56 36
73.84 41
74.12 47
74.4 38
74.68 41
74.96 37
75.24 31
75.52 32
75.8 30
76.08 30
76.36 29
76.64 33
76.92 17
77.2 26
77.48 24
77.76 17
78.04 22
78.32 17
78.6 27
78.88 14
79.16 18
79.44 16
79.72 8
80 16
80.28 20
80.56 16
80.84 18
81.12 23
81.4 21
81.68 10
81.96 16
82.24 16
82.52 15
82.8 24
83.08 22
83.36 12
83.64 18
83.92 13
84.2 12
84.48 15
84.76 17
85.04 18
85.32 14
85.6 13
85.88 16
86.16 17
86.44 20
86.72 20
87 12
87.28 13
87.56 13
87.84 17
88.12 13
88.4 15
88.68 11
88.96 10
89.24 11
89.52 10
89.8 19
90 9