File: 研究/Sn/Sn_X線/190306/Si-wefer-2_20190122_mid.TXT
Sample Si-wefer-2
Comments medium
Filename C:\WINDMAX\DATA\SHIMANO\XRD20190306\Si-wefer-2_20190122_mid.raw
Goniometer TTRáV êÖïΩ∫ﬁ∆µ“∞¿(Tsé≤éËìÆ,ADS)
Attachment ïWèÄééóøŒŸ¿ﬁ∞
Monochromater å≈íË”…∏€“∞¿
ScanningMode 2Theta/Theta
ScanningType Continuos Scanning
X-Ray 40kV/300mA
î≠éUΩÿØƒ 2/3Åã
î≠éUècêßå¿ΩÿØƒ 10mm
éUóêΩÿØƒ 2/3Åã
éÛåıΩÿØƒ 0.3mm
±Ø√»∞¿ äJï˙
”…∏€éÛåıΩÿØƒ 0.8mm
Start 10
Stop 90
Step 0.02
10 113
10.28 105
10.56 108
10.84 103
11.12 94
11.4 100
11.68 112
11.96 115
12.24 85
12.52 113
12.8 96
13.08 94
13.36 105
13.64 108
13.92 90
14.2 64
14.48 82
14.76 94
15.04 98
15.32 86
15.6 89
15.88 90
16.16 91
16.44 78
16.72 68
17 72
17.28 83
17.56 74
17.84 85
18.12 89
18.4 88
18.68 84
18.96 75
19.24 84
19.52 85
19.8 86
20.08 87
20.36 82
20.64 81
20.92 74
21.2 96
21.48 102
21.76 84
22.04 76
22.32 79
22.6 104
22.88 91
23.16 86
23.44 107
23.72 98
24 98
24.28 113
24.56 114
24.84 104
25.12 95
25.4 95
25.68 112
25.96 110
26.24 84
26.52 112
26.8 110
27.08 88
27.36 110
27.64 104
27.92 108
28.2 97
28.48 110
28.76 96
29.04 111
29.32 96
29.6 82
29.88 92
30.16 96
30.44 111
30.72 110
31 99
31.28 90
31.56 110
31.84 110
32.12 89
32.4 97
32.68 87
32.96 104
33.24 113
33.52 104
33.8 96
34.08 87
34.36 81
34.64 96
34.92 81
35.2 88
35.48 100
35.76 85
36.04 71
36.32 84
36.6 79
36.88 66
37.16 63
37.44 63
37.72 64
38 64
38.28 62
38.56 59
38.84 75
39.12 50
39.4 56
39.68 71
39.96 64
40.24 55
40.52 53
40.8 50
41.08 57
41.36 55
41.64 40
41.92 51
42.2 45
42.48 56
42.76 53
43.04 50
43.32 54
43.6 55
43.88 44
44.16 53
44.44 61
44.72 54
45 61
45.28 59
45.56 58
45.84 46
46.12 42
46.4 60
46.68 53
46.96 47
47.24 54
47.52 51
47.8 43
48.08 49
48.36 41
48.64 51
48.92 41
49.2 40
49.48 48
49.76 36
50.04 63
50.32 49
50.6 61
50.88 40
51.16 54
51.44 48
51.72 40
52 45
52.28 46
52.56 33
52.84 42
53.12 35
53.4 42
53.68 53
53.96 40
54.24 45
54.52 41
54.8 27
55.08 47
55.36 36
55.64 40
55.92 45
56.2 42
56.48 33
56.76 41
57.04 36
57.32 35
57.6 26
57.88 36
58.16 44
58.44 43
58.72 42
59 46
59.28 47
59.56 40
59.84 45
60.12 47
60.4 36
60.68 46
60.96 44
61.24 37
61.52 37
61.8 38
62.08 39
62.36 38
62.64 55
62.92 52
63.2 44
63.48 46
63.76 44
64.04 37
64.32 52
64.6 49
64.88 61
65.16 51
65.44 45
65.72 67
66 82
66.28 65
66.56 92
66.84 97
67.12 101
67.4 137
67.68 175
67.96 171
68.24 181
68.52 259
68.8 304
69.08 4174
69.36 729
69.64 279
69.92 192
70.2 184
70.48 171
70.76 175
71.04 125
71.32 118
71.6 99
71.88 84
72.16 72
72.44 71
72.72 67
73 47
73.28 56
73.56 56
73.84 39
74.12 58
74.4 42
74.68 34
74.96 48
75.24 38
75.52 40
75.8 42
76.08 25
76.36 33
76.64 33
76.92 39
77.2 29
77.48 21
77.76 19
78.04 36
78.32 28
78.6 30
78.88 16
79.16 15
79.44 28
79.72 33
80 19
80.28 19
80.56 15
80.84 26
81.12 15
81.4 25
81.68 19
81.96 18
82.24 20
82.52 22
82.8 24
83.08 20
83.36 26
83.64 22
83.92 20
84.2 15
84.48 13
84.76 15
85.04 18
85.32 19
85.6 19
85.88 15
86.16 17
86.44 20
86.72 12
87 20
87.28 15
87.56 16
87.84 15
88.12 11
88.4 14
88.68 8
88.96 13
89.24 16
89.52 10
89.8 19
90 8