File: 研究/Sn/Sn_X線/190306/Si_wefer_20190122.TXT
Sample Si_wefer
Comments rapid
Filename C:\WINDMAX\DATA\SHIMANO\XRD20190306\Si_wefer_20190122.raw
Goniometer TTRáV êÖïΩ∫ﬁ∆µ“∞¿(Tsé≤éËìÆ,ADS)
Attachment ïWèÄééóøŒŸ¿ﬁ∞
Monochromater å≈íË”…∏€“∞¿
ScanningMode 2Theta/Theta
ScanningType Continuos Scanning
X-Ray 40kV/300mA
î≠éUΩÿØƒ 2/3Åã
î≠éUècêßå¿ΩÿØƒ 2mm
éUóêΩÿØƒ 2/3Åã
éÛåıΩÿØƒ 0.3mm
±Ø√»∞¿ äJï˙
”…∏€éÛåıΩÿØƒ 0.8mm
Start 10
Stop 90
Step 0.02
10 22
10.28 41
10.56 36
10.84 30
11.12 26
11.4 19
11.68 28
11.96 22
12.24 32
12.52 21
12.8 26
13.08 24
13.36 23
13.64 28
13.92 29
14.2 34
14.48 25
14.76 23
15.04 25
15.32 19
15.6 25
15.88 21
16.16 23
16.44 29
16.72 25
17 20
17.28 23
17.56 20
17.84 26
18.12 24
18.4 25
18.68 16
18.96 18
19.24 20
19.52 29
19.8 20
20.08 29
20.36 23
20.64 21
20.92 26
21.2 24
21.48 22
21.76 23
22.04 26
22.32 31
22.6 37
22.88 30
23.16 28
23.44 18
23.72 21
24 27
24.28 38
24.56 32
24.84 41
25.12 37
25.4 25
25.68 29
25.96 31
26.24 35
26.52 31
26.8 26
27.08 30
27.36 26
27.64 32
27.92 26
28.2 34
28.48 28
28.76 29
29.04 36
29.32 26
29.6 26
29.88 36
30.16 37
30.44 24
30.72 22
31 22
31.28 20
31.56 20
31.84 19
32.12 25
32.4 21
32.68 22
32.96 22
33.24 17
33.52 19
33.8 22
34.08 22
34.36 23
34.64 21
34.92 17
35.2 19
35.48 19
35.76 18
36.04 18
36.32 20
36.6 12
36.88 13
37.16 13
37.44 10
37.72 12
38 11
38.28 13
38.56 10
38.84 7
39.12 13
39.4 14
39.68 12
39.96 15
40.24 15
40.52 8
40.8 18
41.08 14
41.36 7
41.64 13
41.92 17
42.2 11
42.48 20
42.76 6
43.04 18
43.32 8
43.6 10
43.88 8
44.16 9
44.44 17
44.72 8
45 9
45.28 12
45.56 10
45.84 7
46.12 17
46.4 10
46.68 11
46.96 9
47.24 13
47.52 6
47.8 8
48.08 10
48.36 8
48.64 6
48.92 8
49.2 15
49.48 8
49.76 8
50.04 10
50.32 7
50.6 8
50.88 8
51.16 5
51.44 2
51.72 8
52 8
52.28 6
52.56 11
52.84 5
53.12 2
53.4 6
53.68 4
53.96 6
54.24 7
54.52 8
54.8 4
55.08 1
55.36 4
55.64 8
55.92 9
56.2 4
56.48 5
56.76 2
57.04 6
57.32 10
57.6 5
57.88 5
58.16 5
58.44 7
58.72 5
59 6
59.28 9
59.56 8
59.84 5
60.12 3
60.4 3
60.68 6
60.96 7
61.24 6
61.52 6
61.8 5
62.08 8
62.36 4
62.64 6
62.92 12
63.2 5
63.48 8
63.76 7
64.04 8
64.32 10
64.6 8
64.88 15
65.16 13
65.44 8
65.72 14
66 22
66.28 13
66.56 25
66.84 20
67.12 23
67.4 24
67.68 33
67.96 35
68.24 35
68.52 47
68.8 43
69.08 52
69.36 44
69.64 53
69.92 46
70.2 35
70.48 33
70.76 28
71.04 25
71.32 23
71.6 20
71.88 24
72.16 11
72.44 6
72.72 12
73 17
73.28 16
73.56 5
73.84 8
74.12 3
74.4 8
74.68 5
74.96 9
75.24 10
75.52 7
75.8 7
76.08 6
76.36 4
76.64 4
76.92 8
77.2 3
77.48 8
77.76 2
78.04 3
78.32 6
78.6 8
78.88 7
79.16 9
79.44 5
79.72 2
80 3
80.28 4
80.56 9
80.84 4
81.12 1
81.4 4
81.68 3
81.96 2
82.24 7
82.52 5
82.8 6
83.08 4
83.36 2
83.64 1
83.92 6
84.2 5
84.48 2
84.76 2
85.04 5
85.32 6
85.6 3
85.88 3
86.16 3
86.44 4
86.72 3
87 4
87.28 2
87.56 2
87.84 8
88.12 0
88.4 1
88.68 2
88.96 6
89.24 4
89.52 0
89.8 2
90 6