File: 研究/Sn/Sn_X線/190306/Si_wefer2_20190122.TXT
Sample Si_wefer-2
Comments rapid
Filename C:\Windmax\Data\shimano\XRD20190306\Si_wefer2_20190122.raw
Goniometer TTRáV êÖïΩ∫ﬁ∆µ“∞¿(Tsé≤éËìÆ,ADS)
Attachment ïWèÄééóøŒŸ¿ﬁ∞
Monochromater å≈íË”…∏€“∞¿
ScanningMode 2Theta/Theta
ScanningType Continuos Scanning
X-Ray 40kV/300mA
î≠éUΩÿØƒ 2/3Åã
î≠éUècêßå¿ΩÿØƒ 2mm
éUóêΩÿØƒ 2/3Åã
éÛåıΩÿØƒ 0.3mm
±Ø√»∞¿ äJï˙
”…∏€éÛåıΩÿØƒ 0.8mm
Start 10
Stop 90
Step 0.02
10 28
10.28 25
10.56 24
10.84 36
11.12 30
11.4 25
11.68 29
11.96 22
12.24 27
12.52 28
12.8 18
13.08 31
13.36 24
13.64 24
13.92 33
14.2 16
14.48 18
14.76 20
15.04 23
15.32 33
15.6 19
15.88 23
16.16 23
16.44 19
16.72 23
17 28
17.28 30
17.56 20
17.84 21
18.12 22
18.4 23
18.68 20
18.96 26
19.24 34
19.52 18
19.8 29
20.08 19
20.36 27
20.64 26
20.92 15
21.2 27
21.48 23
21.76 21
22.04 25
22.32 23
22.6 27
22.88 20
23.16 30
23.44 23
23.72 22
24 29
24.28 29
24.56 22
24.84 31
25.12 18
25.4 20
25.68 22
25.96 26
26.24 19
26.52 29
26.8 33
27.08 24
27.36 27
27.64 18
27.92 20
28.2 23
28.48 24
28.76 22
29.04 25
29.32 25
29.6 26
29.88 27
30.16 23
30.44 18
30.72 37
31 23
31.28 29
31.56 29
31.84 27
32.12 18
32.4 24
32.68 16
32.96 25
33.24 26
33.52 26
33.8 20
34.08 28
34.36 31
34.64 21
34.92 18
35.2 18
35.48 16
35.76 21
36.04 25
36.32 26
36.6 19
36.88 15
37.16 22
37.44 20
37.72 19
38 24
38.28 17
38.56 12
38.84 24
39.12 21
39.4 17
39.68 16
39.96 19
40.24 21
40.52 17
40.8 21
41.08 25
41.36 22
41.64 14
41.92 16
42.2 12
42.48 28
42.76 13
43.04 28
43.32 14
43.6 19
43.88 18
44.16 17
44.44 19
44.72 18
45 12
45.28 16
45.56 18
45.84 22
46.12 22
46.4 18
46.68 14
46.96 14
47.24 15
47.52 15
47.8 11
48.08 18
48.36 15
48.64 14
48.92 17
49.2 15
49.48 15
49.76 10
50.04 15
50.32 19
50.6 14
50.88 18
51.16 18
51.44 19
51.72 14
52 9
52.28 19
52.56 9
52.84 19
53.12 13
53.4 12
53.68 11
53.96 16
54.24 15
54.52 15
54.8 10
55.08 17
55.36 13
55.64 18
55.92 19
56.2 13
56.48 10
56.76 14
57.04 10
57.32 12
57.6 15
57.88 18
58.16 13
58.44 14
58.72 19
59 17
59.28 9
59.56 11
59.84 11
60.12 14
60.4 17
60.68 13
60.96 16
61.24 18
61.52 11
61.8 15
62.08 21
62.36 10
62.64 13
62.92 27
63.2 21
63.48 17
63.76 11
64.04 14
64.32 19
64.6 23
64.88 22
65.16 17
65.44 24
65.72 32
66 22
66.28 26
66.56 22
66.84 28
67.12 28
67.4 38
67.68 35
67.96 47
68.24 65
68.52 65
68.8 96
69.08 1399
69.36 217
69.64 70
69.92 65
70.2 49
70.48 73
70.76 43
71.04 40
71.32 29
71.6 21
71.88 23
72.16 25
72.44 24
72.72 18
73 22
73.28 19
73.56 16
73.84 19
74.12 14
74.4 7
74.68 13
74.96 10
75.24 6
75.52 11
75.8 6
76.08 9
76.36 8
76.64 9
76.92 11
77.2 17
77.48 11
77.76 13
78.04 9
78.32 8
78.6 12
78.88 9
79.16 9
79.44 6
79.72 11
80 8
80.28 13
80.56 9
80.84 5
81.12 8
81.4 3
81.68 8
81.96 12
82.24 6
82.52 12
82.8 9
83.08 15
83.36 8
83.64 7
83.92 5
84.2 9
84.48 10
84.76 7
85.04 12
85.32 10
85.6 11
85.88 7
86.16 3
86.44 8
86.72 3
87 8
87.28 9
87.56 7
87.84 7
88.12 7
88.4 10
88.68 7
88.96 7
89.24 6
89.52 2
89.8 2
90 7