File: 研究/Sn/Sn_X線/190306/SnonSi_No-Kenma_K2SnO3aq_20190122_mid.TXT
Sample SnonSi_å§ñÅÇ»Çµ_SnÇ
Comments medium
Filename C:\WINDMAX\DATA\SHIMANO\XRD20190306\SnonSi_No-Kenma_K2SnO3aq_20190122_mid.raw
Goniometer TTRáV êÖïΩ∫ﬁ∆µ“∞¿(Tsé≤éËìÆ,ADS)
Attachment ïWèÄééóøŒŸ¿ﬁ∞
Monochromater å≈íË”…∏€“∞¿
ScanningMode 2Theta/Theta
ScanningType Continuos Scanning
X-Ray 40kV/300mA
î≠éUΩÿØƒ 2/3Åã
î≠éUècêßå¿ΩÿØƒ 10mm
éUóêΩÿØƒ 2/3Åã
éÛåıΩÿØƒ 0.3mm
±Ø√»∞¿ äJï˙
”…∏€éÛåıΩÿØƒ 0.8mm
Start 10
Stop 90
Step 0.02
10 142
10.28 137
10.56 146
10.84 128
11.12 122
11.4 118
11.68 160
11.96 114
12.24 117
12.52 104
12.8 104
13.08 129
13.36 120
13.64 131
13.92 118
14.2 122
14.48 149
14.76 130
15.04 154
15.32 153
15.6 141
15.88 146
16.16 134
16.44 127
16.72 134
17 135
17.28 122
17.56 149
17.84 150
18.12 131
18.4 154
18.68 138
18.96 147
19.24 148
19.52 154
19.8 157
20.08 147
20.36 160
20.64 167
20.92 163
21.2 206
21.48 180
21.76 201
22.04 205
22.32 233
22.6 220
22.88 226
23.16 204
23.44 187
23.72 193
24 197
24.28 173
24.56 199
24.84 167
25.12 188
25.4 177
25.68 151
25.96 177
26.24 164
26.52 181
26.8 184
27.08 172
27.36 166
27.64 179
27.92 179
28.2 184
28.48 160
28.76 163
29.04 166
29.32 184
29.6 164
29.88 183
30.16 155
30.44 151
30.72 168
31 178
31.28 164
31.56 170
31.84 162
32.12 168
32.4 154
32.68 153
32.96 165
33.24 150
33.52 156
33.8 157
34.08 154
34.36 162
34.64 147
34.92 100
35.2 131
35.48 117
35.76 131
36.04 102
36.32 117
36.6 119
36.88 96
37.16 93
37.44 128
37.72 115
38 100
38.28 104
38.56 86
38.84 102
39.12 103
39.4 98
39.68 97
39.96 114
40.24 102
40.52 104
40.8 91
41.08 101
41.36 99
41.64 112
41.92 94
42.2 100
42.48 87
42.76 104
43.04 99
43.32 104
43.6 84
43.88 102
44.16 85
44.44 90
44.72 100
45 95
45.28 102
45.56 93
45.84 82
46.12 81
46.4 76
46.68 83
46.96 87
47.24 77
47.52 94
47.8 80
48.08 94
48.36 80
48.64 91
48.92 82
49.2 70
49.48 83
49.76 91
50.04 69
50.32 81
50.6 78
50.88 70
51.16 85
51.44 88
51.72 70
52 68
52.28 83
52.56 73
52.84 75
53.12 80
53.4 59
53.68 68
53.96 74
54.24 86
54.52 74
54.8 77
55.08 83
55.36 65
55.64 61
55.92 82
56.2 77
56.48 73
56.76 76
57.04 87
57.32 85
57.6 78
57.88 76
58.16 77
58.44 65
58.72 75
59 86
59.28 87
59.56 67
59.84 59
60.12 57
60.4 71
60.68 77
60.96 77
61.24 75
61.52 69
61.8 90
62.08 75
62.36 85
62.64 82
62.92 80
63.2 81
63.48 77
63.76 85
64.04 75
64.32 80
64.6 76
64.88 87
65.16 83
65.44 81
65.72 99
66 91
66.28 110
66.56 135
66.84 118
67.12 142
67.4 172
67.68 280
67.96 502
68.24 984
68.52 2120
68.8 8321
69.08 0
69.36 27908
69.64 4256
69.92 2172
70.2 1548
70.48 1072
70.76 744
71.04 498
71.32 322
71.6 219
71.88 162
72.16 123
72.44 101
72.72 73
73 81
73.28 49
73.56 59
73.84 58
74.12 70
74.4 61
74.68 57
74.96 66
75.24 59
75.52 66
75.8 52
76.08 59
76.36 53
76.64 56
76.92 67
77.2 47
77.48 55
77.76 56
78.04 62
78.32 46
78.6 63
78.88 46
79.16 49
79.44 51
79.72 52
80 29
80.28 51
80.56 44
80.84 40
81.12 44
81.4 55
81.68 43
81.96 32
82.24 41
82.52 46
82.8 47
83.08 44
83.36 35
83.64 51
83.92 49
84.2 40
84.48 27
84.76 38
85.04 51
85.32 39
85.6 32
85.88 36
86.16 35
86.44 49
86.72 49
87 34
87.28 37
87.56 41
87.84 36
88.12 38
88.4 33
88.68 40
88.96 40
89.24 41
89.52 31
89.8 34
90 32