File: 研究/Sn/Sn_X線/190306/SnonSi_Kenma#2000_K2SnO3aq_20190122_mid.TXT
Sample SnonSi_å§ñÅÇ†ÇË_SnÇ
Comments medium
Filename C:\WINDMAX\DATA\SHIMANO\XRD20190306\SnonSi_Kenma#2000_K2SnO3aq_20190122_mid.raw
Goniometer TTRáV êÖïΩ∫ﬁ∆µ“∞¿(Tsé≤éËìÆ,ADS)
Attachment ïWèÄééóøŒŸ¿ﬁ∞
Monochromater å≈íË”…∏€“∞¿
ScanningMode 2Theta/Theta
ScanningType Continuos Scanning
X-Ray 40kV/300mA
î≠éUΩÿØƒ 2/3Åã
î≠éUècêßå¿ΩÿØƒ 10mm
éUóêΩÿØƒ 2/3Åã
éÛåıΩÿØƒ 0.3mm
±Ø√»∞¿ äJï˙
”…∏€éÛåıΩÿØƒ 0.8mm
Start 10
Stop 90
Step 0.02
10 168
10.28 147
10.56 155
10.84 157
11.12 161
11.4 154
11.68 158
11.96 134
12.24 163
12.52 132
12.8 166
13.08 161
13.36 147
13.64 161
13.92 161
14.2 163
14.48 172
14.76 188
15.04 185
15.32 164
15.6 174
15.88 180
16.16 187
16.44 181
16.72 184
17 189
17.28 191
17.56 196
17.84 191
18.12 211
18.4 174
18.68 218
18.96 223
19.24 215
19.52 238
19.8 244
20.08 254
20.36 239
20.64 269
20.92 239
21.2 281
21.48 326
21.76 340
22.04 358
22.32 358
22.6 378
22.88 347
23.16 323
23.44 313
23.72 295
24 258
24.28 264
24.56 277
24.84 284
25.12 251
25.4 259
25.68 274
25.96 265
26.24 246
26.52 247
26.8 246
27.08 266
27.36 234
27.64 263
27.92 261
28.2 237
28.48 244
28.76 254
29.04 263
29.32 250
29.6 238
29.88 242
30.16 248
30.44 224
30.72 336
31 235
31.28 205
31.56 242
31.84 219
32.12 212
32.4 205
32.68 233
32.96 212
33.24 163
33.52 180
33.8 198
34.08 187
34.36 176
34.64 159
34.92 169
35.2 169
35.48 169
35.76 176
36.04 147
36.32 135
36.6 152
36.88 146
37.16 148
37.44 111
37.72 128
38 142
38.28 135
38.56 146
38.84 119
39.12 148
39.4 136
39.68 121
39.96 143
40.24 128
40.52 136
40.8 125
41.08 136
41.36 128
41.64 140
41.92 117
42.2 134
42.48 115
42.76 141
43.04 136
43.32 135
43.6 137
43.88 148
44.16 126
44.44 114
44.72 119
45 139
45.28 106
45.56 119
45.84 107
46.12 125
46.4 105
46.68 109
46.96 113
47.24 113
47.52 117
47.8 104
48.08 109
48.36 115
48.64 106
48.92 94
49.2 110
49.48 88
49.76 96
50.04 89
50.32 79
50.6 119
50.88 117
51.16 88
51.44 83
51.72 91
52 111
52.28 96
52.56 98
52.84 109
53.12 88
53.4 93
53.68 92
53.96 120
54.24 98
54.52 89
54.8 95
55.08 94
55.36 100
55.64 102
55.92 86
56.2 106
56.48 95
56.76 106
57.04 86
57.32 91
57.6 94
57.88 88
58.16 73
58.44 82
58.72 98
59 94
59.28 89
59.56 112
59.84 95
60.12 90
60.4 93
60.68 84
60.96 93
61.24 100
61.52 98
61.8 101
62.08 78
62.36 86
62.64 108
62.92 102
63.2 101
63.48 78
63.76 116
64.04 101
64.32 95
64.6 98
64.88 87
65.16 99
65.44 97
65.72 99
66 85
66.28 117
66.56 108
66.84 119
67.12 141
67.4 161
67.68 176
67.96 265
68.24 490
68.52 1001
68.8 3896
69.08 0
69.36 29608
69.64 2291
69.92 1081
70.2 729
70.48 543
70.76 370
71.04 300
71.32 205
71.6 154
71.88 126
72.16 117
72.44 105
72.72 97
73 92
73.28 90
73.56 76
73.84 82
74.12 85
74.4 77
74.68 78
74.96 80
75.24 75
75.52 69
75.8 75
76.08 67
76.36 72
76.64 65
76.92 60
77.2 72
77.48 65
77.76 69
78.04 62
78.32 63
78.6 58
78.88 76
79.16 58
79.44 63
79.72 62
80 57
80.28 63
80.56 51
80.84 73
81.12 56
81.4 61
81.68 56
81.96 68
82.24 58
82.52 61
82.8 60
83.08 59
83.36 55
83.64 53
83.92 51
84.2 62
84.48 46
84.76 54
85.04 63
85.32 50
85.6 55
85.88 42
86.16 61
86.44 58
86.72 44
87 52
87.28 41
87.56 53
87.84 38
88.12 68
88.4 61
88.68 47
88.96 49
89.24 56
89.52 47
89.8 43
90 55