File: 研究/Sn/Sn_X線/190306/SnonGe-No-Kenma-K2SnO3aq_20190122_std.TXT
Sample SnonGe-å§ñÅÇ»Çµ-SnÇ
Comments medium
Filename C:\WINDMAX\DATA\SHIMANO\XRD20190306\SnonGe-No-Kenma-K2SnO3aq_20190122_std.raw
Goniometer TTRáV êÖïΩ∫ﬁ∆µ“∞¿(Tsé≤éËìÆ,ADS)
Attachment ïWèÄééóøŒŸ¿ﬁ∞
Monochromater å≈íË”…∏€“∞¿
ScanningMode 2Theta/Theta
ScanningType Continuos Scanning
X-Ray 40kV/300mA
î≠éUΩÿØƒ 2/3Åã
î≠éUècêßå¿ΩÿØƒ 10mm
éUóêΩÿØƒ 2/3Åã
éÛåıΩÿØƒ 0.3mm
±Ø√»∞¿ äJï˙
”…∏€éÛåıΩÿØƒ 0.8mm
Start 10
Stop 50
Step 0.02
10 345
10.14 326
10.28 344
10.42 345
10.56 358
10.7 324
10.84 365
10.98 312
11.12 316
11.26 336
11.4 326
11.54 319
11.68 342
11.82 332
11.96 322
12.1 356
12.24 285
12.38 308
12.52 294
12.66 310
12.8 376
12.94 300
13.08 333
13.22 329
13.36 360
13.5 338
13.64 321
13.78 312
13.92 329
14.06 391
14.2 348
14.34 365
14.48 359
14.62 349
14.76 354
14.9 365
15.04 367
15.18 401
15.32 353
15.46 401
15.6 386
15.74 368
15.88 365
16.02 352
16.16 375
16.3 362
16.44 358
16.58 412
16.72 359
16.86 343
17 386
17.14 365
17.28 383
17.42 374
17.56 358
17.7 376
17.84 375
17.98 359
18.12 418
18.26 388
18.4 366
18.54 377
18.68 399
18.82 406
18.96 387
19.1 464
19.24 398
19.38 453
19.52 427
19.66 433
19.8 420
19.94 426
20.08 442
20.22 421
20.36 472
20.5 441
20.64 504
20.78 481
20.92 488
21.06 532
21.2 537
21.34 601
21.48 550
21.62 600
21.76 609
21.9 629
22.04 656
22.18 688
22.32 636
22.46 675
22.6 657
22.74 685
22.88 645
23.02 664
23.16 621
23.3 609
23.44 602
23.58 588
23.72 578
23.86 568
24 551
24.14 559
24.28 543
24.42 551
24.56 572
24.7 501
24.84 544
24.98 528
25.12 506
25.26 484
25.4 568
25.54 499
25.68 535
25.82 538
25.96 561
26.1 524
26.24 521
26.38 535
26.52 522
26.66 522
26.8 493
26.94 513
27.08 508
27.22 573
27.36 527
27.5 509
27.64 549
27.78 543
27.92 547
28.06 519
28.2 544
28.34 507
28.48 573
28.62 498
28.76 474
28.9 563
29.04 519
29.18 581
29.32 518
29.46 494
29.6 487
29.74 523
29.88 548
30.02 515
30.16 506
30.3 498
30.44 519
30.58 509
30.72 494
30.86 504
31 453
31.14 449
31.28 529
31.42 503
31.56 479
31.7 493
31.84 477
31.98 486
32.12 484
32.26 464
32.4 431
32.54 464
32.68 474
32.82 450
32.96 442
33.1 438
33.24 444
33.38 407
33.52 469
33.66 429
33.8 407
33.94 401
34.08 420
34.22 393
34.36 412
34.5 393
34.64 400
34.78 377
34.92 375
35.06 392
35.2 398
35.34 352
35.48 357
35.62 380
35.76 363
35.9 334
36.04 350
36.18 344
36.32 348
36.46 307
36.6 331
36.74 321
36.88 352
37.02 325
37.16 313
37.3 302
37.44 284
37.58 282
37.72 308
37.86 303
38 306
38.14 313
38.28 312
38.42 281
38.56 302
38.7 274
38.84 321
38.98 286
39.12 272
39.26 310
39.4 280
39.54 277
39.68 299
39.82 276
39.96 285
40.1 297
40.24 271
40.38 300
40.52 315
40.66 293
40.8 270
40.94 288
41.08 314
41.22 288
41.36 264
41.5 297
41.64 235
41.78 305
41.92 281
42.06 280
42.2 274
42.34 258
42.48 273
42.62 286
42.76 285
42.9 287
43.04 251
43.18 276
43.32 274
43.46 278
43.6 246
43.74 280
43.88 315
44.02 283
44.16 261
44.3 285
44.44 282
44.58 265
44.72 265
44.86 277
45 270
45.14 308
45.28 333
45.42 306
45.56 260
45.7 230
45.84 276
45.98 260
46.12 235
46.26 240
46.4 274
46.54 244
46.68 242
46.82 251
46.96 287
47.1 274
47.24 222
47.38 240
47.52 269
47.66 229
47.8 272
47.94 239
48.08 255
48.22 243
48.36 265
48.5 237
48.64 240
48.78 243
48.92 237
49.06 241
49.2 229
49.34 271
49.48 238
49.62 208
49.76 205
49.9 259
50 237