File: 研究/Sn/Sn_X線/190306/SnonSi-No-Kenma-K2SnO3aq_20190122_std.TXT
Sample SnonSi-å§ñÅÇ»Çµ-SnÇ
Comments medium
Filename C:\WINDMAX\DATA\SHIMANO\XRD20190306\SnonSi-No-Kenma-K2SnO3aq_20190122_std.raw
Goniometer TTRáV êÖïΩ∫ﬁ∆µ“∞¿(Tsé≤éËìÆ,ADS)
Attachment ïWèÄééóøŒŸ¿ﬁ∞
Monochromater å≈íË”…∏€“∞¿
ScanningMode 2Theta/Theta
ScanningType Continuos Scanning
X-Ray 40kV/300mA
î≠éUΩÿØƒ 2/3Åã
î≠éUècêßå¿ΩÿØƒ 10mm
éUóêΩÿØƒ 2/3Åã
éÛåıΩÿØƒ 0.3mm
±Ø√»∞¿ äJï˙
”…∏€éÛåıΩÿØƒ 0.8mm
Start 10
Stop 32.76
Step 0.02
10 330
10.08 299
10.16 326
10.24 336
10.32 304
10.4 339
10.48 295
10.56 312
10.64 324
10.72 302
10.8 308
10.88 329
10.96 310
11.04 325
11.12 356
11.2 318
11.28 311
11.36 318
11.44 291
11.52 293
11.6 298
11.68 285
11.76 309
11.84 294
11.92 308
12 293
12.08 334
12.16 299
12.24 277
12.32 309
12.4 281
12.48 292
12.56 279
12.64 293
12.72 274
12.8 315
12.88 288
12.96 253
13.04 291
13.12 311
13.2 278
13.28 289
13.36 283
13.44 299
13.52 258
13.6 292
13.68 277
13.76 287
13.84 299
13.92 304
14 288
14.08 291
14.16 306
14.24 253
14.32 302
14.4 291
14.48 301
14.56 305
14.64 284
14.72 306
14.8 303
14.88 319
14.96 274
15.04 302
15.12 284
15.2 298
15.28 297
15.36 314
15.44 276
15.52 288
15.6 277
15.68 301
15.76 327
15.84 280
15.92 287
16 313
16.08 281
16.16 280
16.24 290
16.32 310
16.4 310
16.48 316
16.56 291
16.64 264
16.72 323
16.8 283
16.88 323
16.96 317
17.04 347
17.12 324
17.2 349
17.28 334
17.36 306
17.44 336
17.52 358
17.6 355
17.68 338
17.76 339
17.84 321
17.92 301
18 373
18.08 329
18.16 365
18.24 368
18.32 369
18.4 362
18.48 326
18.56 337
18.64 381
18.72 392
18.8 370
18.88 348
18.96 361
19.04 362
19.12 378
19.2 375
19.28 360
19.36 409
19.44 376
19.52 398
19.6 404
19.68 395
19.76 345
19.84 398
19.92 381
20 393
20.08 363
20.16 413
20.24 414
20.32 414
20.4 409
20.48 372
20.56 438
20.64 457
20.72 415
20.8 409
20.88 429
20.96 459
21.04 419
21.12 443
21.2 440
21.28 479
21.36 454
21.44 455
21.52 461
21.6 467
21.68 494
21.76 480
21.84 492
21.92 445
22 524
22.08 491
22.16 515
22.24 499
22.32 540
22.4 493
22.48 480
22.56 494
22.64 559
22.72 509
22.8 506
22.88 512
22.96 498
23.04 530
23.12 527
23.2 495
23.28 534
23.36 496
23.44 494
23.52 497
23.6 526
23.68 490
23.76 483
23.84 494
23.92 462
24 521
24.08 508
24.16 513
24.24 502
24.32 492
24.4 463
24.48 442
24.56 483
24.64 511
24.72 493
24.8 475
24.88 508
24.96 530
25.04 505
25.12 502
25.2 495
25.28 535
25.36 506
25.44 506
25.52 503
25.6 492
25.68 499
25.76 515
25.84 480
25.92 496
26 515
26.08 494
26.16 535
26.24 505
26.32 478
26.4 481
26.48 510
26.56 510
26.64 511
26.72 523
26.8 503
26.88 529
26.96 545
27.04 536
27.12 522
27.2 484
27.28 478
27.36 464
27.44 530
27.52 489
27.6 528
27.68 553
27.76 499
27.84 534
27.92 547
28 518
28.08 520
28.16 526
28.24 503
28.32 494
28.4 493
28.48 490
28.56 524
28.64 464
28.72 538
28.8 548
28.88 459
28.96 520
29.04 494
29.12 529
29.2 504
29.28 462
29.36 516
29.44 517
29.52 513
29.6 496
29.68 498
29.76 474
29.84 517
29.92 501
30 484
30.08 486
30.16 455
30.24 516
30.32 516
30.4 498
30.48 470
30.56 492
30.64 487
30.72 471
30.8 508
30.88 523
30.96 497
31.04 482
31.12 476
31.2 507
31.28 451
31.36 443
31.44 473
31.52 474
31.6 469
31.68 447
31.76 465
31.84 485
31.92 462
32 452
32.08 440
32.16 433
32.24 418
32.32 452
32.4 420
32.48 399
32.56 439
32.64 472
32.72 455
32.76 417