File: 研究/Sn/Sn_X線/190306/SnonGe-Kenma#2000-K2SnO3aq_20190122_mid.TXT
Sample SnonGe-å§ñÅÇ†ÇË-SnÇ
Comments medium
Filename C:\WINDMAX\DATA\SHIMANO\XRD20190306\SnonGe-Kenma#2000-K2SnO3aq_20190122_mid.raw
Goniometer TTRáV êÖïΩ∫ﬁ∆µ“∞¿(Tsé≤éËìÆ,ADS)
Attachment ïWèÄééóøŒŸ¿ﬁ∞
Monochromater å≈íË”…∏€“∞¿
ScanningMode 2Theta/Theta
ScanningType Continuos Scanning
X-Ray 40kV/300mA
î≠éUΩÿØƒ 2/3Åã
î≠éUècêßå¿ΩÿØƒ 10mm
éUóêΩÿØƒ 2/3Åã
éÛåıΩÿØƒ 0.3mm
±Ø√»∞¿ äJï˙
”…∏€éÛåıΩÿØƒ 0.8mm
Start 10
Stop 90
Step 0.02
10 138
10.28 123
10.56 140
10.84 126
11.12 136
11.4 132
11.68 109
11.96 138
12.24 124
12.52 116
12.8 145
13.08 134
13.36 120
13.64 119
13.92 134
14.2 147
14.48 133
14.76 142
15.04 139
15.32 114
15.6 135
15.88 114
16.16 141
16.44 137
16.72 137
17 128
17.28 136
17.56 125
17.84 145
18.12 136
18.4 118
18.68 143
18.96 185
19.24 160
19.52 165
19.8 170
20.08 131
20.36 168
20.64 162
20.92 188
21.2 210
21.48 235
21.76 192
22.04 223
22.32 220
22.6 252
22.88 220
23.16 225
23.44 196
23.72 199
24 207
24.28 206
24.56 198
24.84 212
25.12 185
25.4 221
25.68 216
25.96 209
26.24 193
26.52 214
26.8 220
27.08 189
27.36 220
27.64 224
27.92 180
28.2 196
28.48 229
28.76 214
29.04 199
29.32 214
29.6 201
29.88 183
30.16 201
30.44 181
30.72 192
31 180
31.28 177
31.56 174
31.84 152
32.12 182
32.4 160
32.68 167
32.96 162
33.24 132
33.52 157
33.8 142
34.08 167
34.36 153
34.64 118
34.92 145
35.2 142
35.48 130
35.76 115
36.04 105
36.32 124
36.6 126
36.88 120
37.16 105
37.44 111
37.72 107
38 108
38.28 101
38.56 112
38.84 91
39.12 105
39.4 96
39.68 97
39.96 101
40.24 90
40.52 95
40.8 82
41.08 102
41.36 93
41.64 109
41.92 97
42.2 105
42.48 95
42.76 97
43.04 95
43.32 87
43.6 100
43.88 86
44.16 99
44.44 88
44.72 96
45 89
45.28 85
45.56 88
45.84 95
46.12 88
46.4 90
46.68 100
46.96 106
47.24 91
47.52 80
47.8 98
48.08 67
48.36 85
48.64 85
48.92 72
49.2 82
49.48 81
49.76 88
50.04 78
50.32 93
50.6 87
50.88 87
51.16 77
51.44 88
51.72 80
52 79
52.28 67
52.56 81
52.84 85
53.12 89
53.4 65
53.68 92
53.96 84
54.24 74
54.52 61
54.8 78
55.08 77
55.36 79
55.64 75
55.92 60
56.2 78
56.48 80
56.76 89
57.04 69
57.32 83
57.6 79
57.88 84
58.16 79
58.44 89
58.72 84
59 70
59.28 87
59.56 82
59.84 57
60.12 64
60.4 81
60.68 79
60.96 70
61.24 76
61.52 72
61.8 78
62.08 78
62.36 81
62.64 75
62.92 72
63.2 62
63.48 76
63.76 102
64.04 70
64.32 75
64.6 74
64.88 69
65.16 78
65.44 81
65.72 71
66 78
66.28 74
66.56 84
66.84 60
67.12 62
67.4 57
67.68 65
67.96 67
68.24 51
68.52 74
68.8 70
69.08 64
69.36 67
69.64 75
69.92 68
70.2 72
70.48 60
70.76 61
71.04 67
71.32 74
71.6 65
71.88 70
72.16 48
72.44 65
72.72 50
73 53
73.28 66
73.56 66
73.84 72
74.12 69
74.4 57
74.68 58
74.96 59
75.24 67
75.52 58
75.8 60
76.08 52
76.36 40
76.64 57
76.92 58
77.2 69
77.48 63
77.76 59
78.04 43
78.32 54
78.6 44
78.88 59
79.16 64
79.44 73
79.72 49
80 63
80.28 49
80.56 50
80.84 40
81.12 53
81.4 40
81.68 61
81.96 39
82.24 56
82.52 34
82.8 49
83.08 63
83.36 46
83.64 53
83.92 52
84.2 53
84.48 49
84.76 43
85.04 46
85.32 52
85.6 41
85.88 43
86.16 42
86.44 51
86.72 44
87 30
87.28 49
87.56 49
87.84 36
88.12 39
88.4 50
88.68 48
88.96 45
89.24 47
89.52 42
89.8 46
90 50