File: 研究/Sn/Sn_X線/190306/SnonSi-No-Kenma-K2SnO3aq_20190122_std2.TXT
Sample SnonSi-å§ñÅÇ»Çµ-SnÇ
Comments medium
Filename C:\WINDMAX\DATA\SHIMANO\XRD20190306\SnonSi-No-Kenma-K2SnO3aq_20190122_std2.raw
Goniometer TTRáV êÖïΩ∫ﬁ∆µ“∞¿(Tsé≤éËìÆ,ADS)
Attachment ïWèÄééóøŒŸ¿ﬁ∞
Monochromater å≈íË”…∏€“∞¿
ScanningMode 2Theta/Theta
ScanningType Continuos Scanning
X-Ray 40kV/300mA
î≠éUΩÿØƒ 2/3Åã
î≠éUècêßå¿ΩÿØƒ 10mm
éUóêΩÿØƒ 2/3Åã
éÛåıΩÿØƒ 0.3mm
±Ø√»∞¿ äJï˙
”…∏€éÛåıΩÿØƒ 0.8mm
Start 10
Stop 50
Step 0.02
10 285
10.14 332
10.28 322
10.42 333
10.56 335
10.7 302
10.84 319
10.98 322
11.12 314
11.26 315
11.4 310
11.54 289
11.68 284
11.82 310
11.96 304
12.1 304
12.24 302
12.38 328
12.52 320
12.66 313
12.8 300
12.94 291
13.08 286
13.22 308
13.36 286
13.5 297
13.64 287
13.78 280
13.92 329
14.06 300
14.2 305
14.34 304
14.48 326
14.62 313
14.76 347
14.9 278
15.04 302
15.18 306
15.32 312
15.46 347
15.6 314
15.74 323
15.88 297
16.02 317
16.16 331
16.3 328
16.44 335
16.58 282
16.72 325
16.86 318
17 341
17.14 324
17.28 324
17.42 328
17.56 326
17.7 337
17.84 309
17.98 338
18.12 334
18.26 342
18.4 365
18.54 337
18.68 381
18.82 382
18.96 371
19.1 382
19.24 411
19.38 410
19.52 433
19.66 378
19.8 409
19.94 392
20.08 389
20.22 417
20.36 434
20.5 461
20.64 449
20.78 423
20.92 469
21.06 447
21.2 482
21.34 473
21.48 467
21.62 532
21.76 487
21.9 490
22.04 546
22.18 565
22.32 530
22.46 552
22.6 526
22.74 563
22.88 525
23.02 488
23.16 562
23.3 505
23.44 530
23.58 534
23.72 534
23.86 512
24 555
24.14 521
24.28 502
24.42 499
24.56 545
24.7 514
24.84 552
24.98 581
25.12 588
25.26 540
25.4 517
25.54 548
25.68 551
25.82 531
25.96 487
26.1 532
26.24 538
26.38 506
26.52 539
26.66 523
26.8 498
26.94 533
27.08 514
27.22 524
27.36 500
27.5 531
27.64 570
27.78 491
27.92 530
28.06 524
28.2 519
28.34 546
28.48 501
28.62 508
28.76 527
28.9 489
29.04 498
29.18 473
29.32 478
29.46 500
29.6 518
29.74 466
29.88 491
30.02 457
30.16 460
30.3 430
30.44 480
30.58 443
30.72 467
30.86 438
31 446
31.14 443
31.28 439
31.42 425
31.56 434
31.7 408
31.84 431
31.98 437
32.12 402
32.26 374
32.4 390
32.54 413
32.68 359
32.82 366
32.96 362
33.1 369
33.24 355
33.38 355
33.52 359
33.66 348
33.8 335
33.94 323
34.08 329
34.22 325
34.36 320
34.5 314
34.64 336
34.78 297
34.92 327
35.06 312
35.2 305
35.34 278
35.48 271
35.62 291
35.76 283
35.9 292
36.04 280
36.18 285
36.32 276
36.46 264
36.6 290
36.74 242
36.88 249
37.02 251
37.16 249
37.3 253
37.44 281
37.58 265
37.72 233
37.86 258
38 233
38.14 267
38.28 217
38.42 220
38.56 247
38.7 204
38.84 213
38.98 249
39.12 228
39.26 231
39.4 231
39.54 264
39.68 243
39.82 245
39.96 215
40.1 233
40.24 229
40.38 195
40.52 218
40.66 226
40.8 205
40.94 228
41.08 225
41.22 252
41.36 215
41.5 212
41.64 214
41.78 219
41.92 227
42.06 217
42.2 196
42.34 206
42.48 218
42.62 223
42.76 227
42.9 219
43.04 242
43.18 224
43.32 207
43.46 214
43.6 214
43.74 218
43.88 215
44.02 227
44.16 221
44.3 232
44.44 198
44.58 215
44.72 208
44.86 207
45 191
45.14 192
45.28 207
45.42 210
45.56 203
45.7 200
45.84 219
45.98 226
46.12 194
46.26 212
46.4 217
46.54 190
46.68 191
46.82 207
46.96 199
47.1 213
47.24 188
47.38 186
47.52 188
47.66 191
47.8 196
47.94 180
48.08 171
48.22 169
48.36 181
48.5 173
48.64 157
48.78 176
48.92 157
49.06 181
49.2 182
49.34 175
49.48 199
49.62 167
49.76 199
49.9 165
50 206