File: 研究/Sn/Sn_X線/190306/SnonSi_No-Kenma_K2SnO3aq_20190122.TXT
Sample SnonSi_å§ñÅÇ»Çµ_SnÇ
Comments rapid
Filename C:\WINDMAX\DATA\SHIMANO\XRD20190306\SnonSi_No-Kenma_K2SnO3aq_20190122.raw
Goniometer TTRáV êÖïΩ∫ﬁ∆µ“∞¿(Tsé≤éËìÆ,ADS)
Attachment ïWèÄééóøŒŸ¿ﬁ∞
Monochromater å≈íË”…∏€“∞¿
ScanningMode 2Theta/Theta
ScanningType Continuos Scanning
X-Ray 40kV/300mA
î≠éUΩÿØƒ 2/3Åã
î≠éUècêßå¿ΩÿØƒ 2mm
éUóêΩÿØƒ 2/3Åã
éÛåıΩÿØƒ 0.3mm
±Ø√»∞¿ äJï˙
”…∏€éÛåıΩÿØƒ 0.8mm
Start 10
Stop 90
Step 0.02
10 24
10.28 33
10.56 30
10.84 31
11.12 47
11.4 35
11.68 28
11.96 24
12.24 27
12.52 31
12.8 29
13.08 22
13.36 24
13.64 35
13.92 41
14.2 33
14.48 24
14.76 32
15.04 29
15.32 34
15.6 41
15.88 29
16.16 41
16.44 26
16.72 36
17 29
17.28 34
17.56 44
17.84 28
18.12 38
18.4 46
18.68 37
18.96 33
19.24 49
19.52 38
19.8 35
20.08 49
20.36 45
20.64 39
20.92 36
21.2 53
21.48 45
21.76 56
22.04 67
22.32 54
22.6 63
22.88 37
23.16 45
23.44 38
23.72 47
24 53
24.28 57
24.56 40
24.84 39
25.12 37
25.4 40
25.68 39
25.96 38
26.24 40
26.52 38
26.8 43
27.08 35
27.36 36
27.64 48
27.92 43
28.2 44
28.48 36
28.76 39
29.04 33
29.32 46
29.6 53
29.88 39
30.16 32
30.44 47
30.72 37
31 34
31.28 37
31.56 51
31.84 38
32.12 37
32.4 36
32.68 32
32.96 42
33.24 36
33.52 36
33.8 42
34.08 31
34.36 43
34.64 33
34.92 28
35.2 27
35.48 29
35.76 26
36.04 27
36.32 33
36.6 38
36.88 29
37.16 24
37.44 26
37.72 20
38 24
38.28 30
38.56 27
38.84 36
39.12 21
39.4 23
39.68 30
39.96 27
40.24 26
40.52 24
40.8 31
41.08 31
41.36 28
41.64 24
41.92 25
42.2 32
42.48 18
42.76 25
43.04 19
43.32 30
43.6 25
43.88 22
44.16 20
44.44 16
44.72 34
45 35
45.28 20
45.56 25
45.84 20
46.12 22
46.4 17
46.68 25
46.96 28
47.24 25
47.52 33
47.8 25
48.08 23
48.36 23
48.64 23
48.92 13
49.2 20
49.48 21
49.76 21
50.04 22
50.32 15
50.6 25
50.88 18
51.16 17
51.44 15
51.72 20
52 22
52.28 23
52.56 12
52.84 26
53.12 18
53.4 23
53.68 18
53.96 19
54.24 20
54.52 18
54.8 17
55.08 15
55.36 17
55.64 19
55.92 22
56.2 21
56.48 10
56.76 17
57.04 14
57.32 21
57.6 15
57.88 24
58.16 17
58.44 9
58.72 20
59 22
59.28 11
59.56 21
59.84 13
60.12 23
60.4 12
60.68 14
60.96 18
61.24 12
61.52 23
61.8 20
62.08 17
62.36 20
62.64 11
62.92 20
63.2 18
63.48 14
63.76 14
64.04 21
64.32 25
64.6 22
64.88 20
65.16 17
65.44 17
65.72 26
66 20
66.28 25
66.56 22
66.84 26
67.12 23
67.4 35
67.68 65
67.96 123
68.24 236
68.52 514
68.8 1989
69.08 0
69.36 7704
69.64 1058
69.92 522
70.2 365
70.48 263
70.76 205
71.04 143
71.32 86
71.6 48
71.88 42
72.16 28
72.44 27
72.72 28
73 7
73.28 19
73.56 21
73.84 22
74.12 16
74.4 8
74.68 17
74.96 14
75.24 22
75.52 16
75.8 17
76.08 12
76.36 19
76.64 13
76.92 16
77.2 16
77.48 11
77.76 12
78.04 17
78.32 11
78.6 11
78.88 8
79.16 11
79.44 12
79.72 16
80 11
80.28 11
80.56 14
80.84 7
81.12 17
81.4 7
81.68 10
81.96 11
82.24 12
82.52 8
82.8 14
83.08 8
83.36 6
83.64 15
83.92 8
84.2 6
84.48 10
84.76 15
85.04 8
85.32 11
85.6 6
85.88 9
86.16 10
86.44 10
86.72 6
87 7
87.28 6
87.56 8
87.84 10
88.12 7
88.4 12
88.68 11
88.96 11
89.24 8
89.52 12
89.8 9
90 8