File: 研究/Sn/Sn_X線/190306/SnonGe-No-Kenma-K2SnO3aq_20190122_mid.TXT
Sample SnonGe-å§ñÅÇ»Çµ-SnÇ
Comments medium
Filename C:\WINDMAX\DATA\SHIMANO\XRD20190306\SnonGe-No-Kenma-K2SnO3aq_20190122_mid.raw
Goniometer TTRáV êÖïΩ∫ﬁ∆µ“∞¿(Tsé≤éËìÆ,ADS)
Attachment ïWèÄééóøŒŸ¿ﬁ∞
Monochromater å≈íË”…∏€“∞¿
ScanningMode 2Theta/Theta
ScanningType Continuos Scanning
X-Ray 40kV/300mA
î≠éUΩÿØƒ 2/3Åã
î≠éUècêßå¿ΩÿØƒ 10mm
éUóêΩÿØƒ 2/3Åã
éÛåıΩÿØƒ 0.3mm
±Ø√»∞¿ äJï˙
”…∏€éÛåıΩÿØƒ 0.8mm
Start 10
Stop 90
Step 0.02
10 148
10.28 126
10.56 134
10.84 97
11.12 130
11.4 115
11.68 138
11.96 149
12.24 114
12.52 121
12.8 117
13.08 145
13.36 112
13.64 145
13.92 140
14.2 155
14.48 150
14.76 146
15.04 143
15.32 132
15.6 150
15.88 146
16.16 176
16.44 149
16.72 161
17 151
17.28 175
17.56 139
17.84 148
18.12 167
18.4 162
18.68 164
18.96 159
19.24 184
19.52 160
19.8 179
20.08 183
20.36 188
20.64 175
20.92 201
21.2 207
21.48 222
21.76 239
22.04 242
22.32 276
22.6 265
22.88 229
23.16 283
23.44 234
23.72 215
24 207
24.28 206
24.56 178
24.84 206
25.12 211
25.4 182
25.68 226
25.96 210
26.24 203
26.52 201
26.8 220
27.08 208
27.36 213
27.64 205
27.92 222
28.2 198
28.48 199
28.76 205
29.04 208
29.32 238
29.6 190
29.88 184
30.16 199
30.44 182
30.72 229
31 201
31.28 179
31.56 186
31.84 181
32.12 186
32.4 176
32.68 173
32.96 196
33.24 186
33.52 175
33.8 161
34.08 185
34.36 151
34.64 165
34.92 161
35.2 157
35.48 139
35.76 173
36.04 141
36.32 127
36.6 120
36.88 130
37.16 124
37.44 103
37.72 120
38 140
38.28 139
38.56 95
38.84 109
39.12 119
39.4 120
39.68 108
39.96 116
40.24 116
40.52 126
40.8 108
41.08 124
41.36 118
41.64 109
41.92 118
42.2 105
42.48 112
42.76 93
43.04 126
43.32 125
43.6 120
43.88 101
44.16 100
44.44 104
44.72 103
45 114
45.28 145
45.56 103
45.84 109
46.12 97
46.4 95
46.68 103
46.96 95
47.24 102
47.52 101
47.8 95
48.08 96
48.36 104
48.64 111
48.92 80
49.2 104
49.48 99
49.76 100
50.04 103
50.32 88
50.6 114
50.88 103
51.16 95
51.44 101
51.72 104
52 107
52.28 108
52.56 100
52.84 117
53.12 114
53.4 110
53.68 100
53.96 101
54.24 100
54.52 108
54.8 89
55.08 91
55.36 70
55.64 107
55.92 114
56.2 94
56.48 84
56.76 91
57.04 94
57.32 105
57.6 72
57.88 95
58.16 94
58.44 73
58.72 90
59 82
59.28 99
59.56 80
59.84 97
60.12 80
60.4 87
60.68 102
60.96 85
61.24 94
61.52 90
61.8 81
62.08 81
62.36 80
62.64 111
62.92 88
63.2 97
63.48 92
63.76 88
64.04 88
64.32 96
64.6 77
64.88 93
65.16 77
65.44 79
65.72 89
66 78
66.28 80
66.56 76
66.84 80
67.12 89
67.4 78
67.68 89
67.96 79
68.24 73
68.52 94
68.8 87
69.08 81
69.36 62
69.64 103
69.92 61
70.2 83
70.48 77
70.76 89
71.04 77
71.32 86
71.6 81
71.88 64
72.16 77
72.44 68
72.72 69
73 67
73.28 70
73.56 53
73.84 61
74.12 76
74.4 65
74.68 72
74.96 65
75.24 81
75.52 60
75.8 62
76.08 65
76.36 65
76.64 67
76.92 66
77.2 69
77.48 71
77.76 63
78.04 73
78.32 68
78.6 66
78.88 56
79.16 57
79.44 73
79.72 67
80 61
80.28 60
80.56 57
80.84 66
81.12 48
81.4 64
81.68 64
81.96 56
82.24 60
82.52 77
82.8 65
83.08 57
83.36 61
83.64 56
83.92 52
84.2 58
84.48 60
84.76 59
85.04 61
85.32 57
85.6 59
85.88 59
86.16 61
86.44 54
86.72 64
87 52
87.28 55
87.56 55
87.84 54
88.12 60
88.4 45
88.68 53
88.96 73
89.24 49
89.52 54
89.8 55
90 59