File: 研究/Sn/Sn_X線/190306/SnonSi_Kenma#2000_K2SnO3aq_20190122.TXT
Sample SnonSi_å§ñÅÇ†ÇË_SnÇ
Comments rapid
Filename C:\WINDMAX\DATA\SHIMANO\XRD20190306\SnonSi_Kenma#2000_K2SnO3aq_20190122.raw
Goniometer TTRáV êÖïΩ∫ﬁ∆µ“∞¿(Tsé≤éËìÆ,ADS)
Attachment ïWèÄééóøŒŸ¿ﬁ∞
Monochromater å≈íË”…∏€“∞¿
ScanningMode 2Theta/Theta
ScanningType Continuos Scanning
X-Ray 40kV/300mA
î≠éUΩÿØƒ 2/3Åã
î≠éUècêßå¿ΩÿØƒ 2mm
éUóêΩÿØƒ 2/3Åã
éÛåıΩÿØƒ 0.3mm
±Ø√»∞¿ äJï˙
”…∏€éÛåıΩÿØƒ 0.8mm
Start 10
Stop 90
Step 0.02
10 36
10.28 42
10.56 51
10.84 47
11.12 37
11.4 37
11.68 37
11.96 35
12.24 28
12.52 33
12.8 34
13.08 40
13.36 46
13.64 43
13.92 44
14.2 32
14.48 53
14.76 50
15.04 52
15.32 49
15.6 57
15.88 46
16.16 45
16.44 59
16.72 49
17 51
17.28 53
17.56 54
17.84 48
18.12 67
18.4 61
18.68 51
18.96 49
19.24 58
19.52 50
19.8 70
20.08 55
20.36 61
20.64 87
20.92 67
21.2 65
21.48 74
21.76 97
22.04 66
22.32 84
22.6 94
22.88 105
23.16 88
23.44 90
23.72 84
24 75
24.28 67
24.56 64
24.84 67
25.12 81
25.4 67
25.68 73
25.96 73
26.24 76
26.52 69
26.8 71
27.08 65
27.36 90
27.64 66
27.92 72
28.2 60
28.48 69
28.76 70
29.04 60
29.32 60
29.6 66
29.88 62
30.16 55
30.44 63
30.72 76
31 68
31.28 54
31.56 57
31.84 73
32.12 49
32.4 62
32.68 66
32.96 50
33.24 52
33.52 49
33.8 37
34.08 49
34.36 49
34.64 36
34.92 43
35.2 45
35.48 47
35.76 42
36.04 37
36.32 36
36.6 33
36.88 40
37.16 29
37.44 45
37.72 35
38 34
38.28 28
38.56 38
38.84 24
39.12 35
39.4 29
39.68 33
39.96 29
40.24 29
40.52 31
40.8 32
41.08 44
41.36 30
41.64 27
41.92 39
42.2 24
42.48 27
42.76 25
43.04 30
43.32 31
43.6 21
43.88 23
44.16 38
44.44 31
44.72 28
45 29
45.28 31
45.56 34
45.84 26
46.12 31
46.4 27
46.68 25
46.96 36
47.24 36
47.52 29
47.8 24
48.08 28
48.36 22
48.64 24
48.92 25
49.2 22
49.48 32
49.76 28
50.04 19
50.32 26
50.6 26
50.88 20
51.16 29
51.44 22
51.72 28
52 11
52.28 15
52.56 19
52.84 27
53.12 20
53.4 23
53.68 21
53.96 20
54.24 15
54.52 17
54.8 17
55.08 21
55.36 24
55.64 27
55.92 20
56.2 21
56.48 16
56.76 28
57.04 22
57.32 23
57.6 25
57.88 32
58.16 31
58.44 23
58.72 13
59 31
59.28 20
59.56 26
59.84 33
60.12 19
60.4 25
60.68 21
60.96 16
61.24 23
61.52 25
61.8 28
62.08 22
62.36 14
62.64 36
62.92 24
63.2 16
63.48 25
63.76 43
64.04 25
64.32 17
64.6 26
64.88 16
65.16 24
65.44 22
65.72 29
66 31
66.28 28
66.56 23
66.84 27
67.12 31
67.4 36
67.68 42
67.96 87
68.24 148
68.52 293
68.8 1401
69.08 0
69.36 18750
69.64 850
69.92 421
70.2 304
70.48 220
70.76 146
71.04 105
71.32 69
71.6 47
71.88 26
72.16 21
72.44 29
72.72 26
73 17
73.28 28
73.56 18
73.84 17
74.12 32
74.4 14
74.68 19
74.96 24
75.24 13
75.52 15
75.8 16
76.08 15
76.36 16
76.64 20
76.92 19
77.2 15
77.48 22
77.76 17
78.04 20
78.32 9
78.6 19
78.88 12
79.16 19
79.44 6
79.72 15
80 20
80.28 14
80.56 18
80.84 11
81.12 13
81.4 16
81.68 10
81.96 9
82.24 12
82.52 19
82.8 15
83.08 18
83.36 14
83.64 12
83.92 19
84.2 11
84.48 11
84.76 13
85.04 11
85.32 16
85.6 11
85.88 12
86.16 11
86.44 18
86.72 14
87 13
87.28 15
87.56 12
87.84 10
88.12 10
88.4 15
88.68 18
88.96 9
89.24 6
89.52 9
89.8 8
90 9